File: sample/CsV3Sb5_0T_20241208_2θ_ω.asc
*TYPE		=  Raw
*CLASS		=  ASCII CLASS
*SAMPLE		=
*COMMENT	=
*FNAME		=  CsV3Sb5_0T_20241208_2θ_ω.asc
*DATE		=  08-Dec-24 16:45

*GROUP_COUNT	=  1
*GONIO		=  SmartLab, 0.000000
*ATTACHMENT	=  Z-φステージ
*ASC		=  0, 0, 0.000000, 0.000000
*I_MONOCHRO	=  Soller_slit_5.0deg, 0.000000
*FILTER		=  Cu_K-beta
*C_MONOCHRO	=  None, 0.000000
*SLIT_NAME	=  0, 入射スリット
*SLIT_NAME	=  1, 受光スリット1
*SLIT_NAME	=  2, 受光スリット2
*COUNTER	=  D/teX Ultra 250, 0
*POS_FORMAT	=  0
*SCAN_AXIS	=  2Theta/Omega
*MEAS_MODE	=  Continuous Scanning
*TARGET		=  29
*XRAY_CHAR	=  K-ALPHA
*WAVE_LENGTH1	=  1.54059
*WAVE_LENGTH2	=  1.54441
*THICKNESS	=  0, 0.000000
*MU		=  0, 0.000000
*SCAN_MODE	=  2Theta/Omega
*SPEED_DIM	=  sec./step
*XUNIT		=  deg.
*YUNIT		=  counts
*SCALE_MODE	=  1
*REP_COUNT	=  0
*SE_COUNT	=  0
*STD_MATERIAL	=  Unknown, Unknown, 0.000000, 0.000000, 0.000000, 0.000000, 0.000000, 0.000000
*LATT_CONS	=  0, Unknown, Unknown, 0.000000, 0.000000, 0.000000, 0.000000, 0.000000, 0.000000
*SEC_COUNT	=  1
*TSPEC_SIZE	=  0
*EXTRA_SIZE	=  0
*MEMO		=

*BEGIN
*GROUP		=  0
*START		=  5
*STOP		=  60
*STEP		=  0.02
*OFFSET		=  0.000000
*SPEED		=  0.235364
*SLIT_SPEC	=  0, 1/2deg, 1, 0.000000
*SLIT_SPEC	=  1, 20.000mm, 20, 0.000000
*SLIT_SPEC	=  2, 20.000mm, 20, 0.000000
*KV		=  40
*MA		=  30
*LOW		=  0.000000
*HIGH		=  0.000000
*CTEMPER	=  0, 0.000000
*CTEMPER	=  1, 0.000000
*CTEMPER	=  2, 0.000000
*PAREX		=  0, 0.000000
*PAREX		=  1, 0.000000
*PAREX		=  2, 0.000000
*PAREX		=  3, 0.000000
*PAREX		=  4, 0.000000
*PAREX		=  5, 0.000000
*PAREX		=  6, 0.000000
*PAREX		=  7, 0.000000
*PAREX		=  8, 0.000000
*PAREX		=  9, 0.000000
*PAREX		=  10, 0.000000
*PAREX		=  11, 0.000000
*PAREX		=  12, 0.000000
*PAREX		=  13, 0.000000
*PAREX		=  14, 0.000000
*PAREX		=  15, 0.000000
*FULL_SCALE	=  87780.5
*INDEX		=  0, 0, 0
*COUNT		=  2751
3122, 3111, 3107, 3161
3083, 3086, 3025, 3080
3165, 3032, 3095, 3135
3066, 3090, 3086, 3049
2852, 2985, 3004, 2976
3014, 3034, 2988, 2911
2834, 3037, 2989, 2934
2936, 2917, 2882, 2928
2898, 2983, 2882, 2855
2856, 2866, 2810, 2677
2883, 2871, 2710, 2706
2721, 2856, 2684, 2713
2791, 2682, 2747, 2730
2609, 2716, 2696, 2650
2661, 2653, 2624, 2617
2615, 2619, 2551, 2559
2529, 2512, 2471, 2528
2438, 2522, 2548, 2462
2575, 2505, 2501, 2469
2657, 2528, 2420, 2532
2324, 2302, 2285, 2327
2307, 2313, 2321, 2299
2217, 2231, 2252, 2195
2158, 2257, 2172, 2118
2134, 2115, 2150, 2121
2096, 2095, 2014, 2027
2046, 2002, 2059, 1929
2020, 1961, 1929, 1974
1983, 1907, 1931, 1964
1888, 1977, 1894, 1930
1888, 1818, 1776, 1850
1876, 1793, 1785, 1863
1692, 1723, 1784, 1790
1724, 1684, 1715, 1685
1653, 1722, 1672, 1730
1681, 1612, 1568, 1640
1543, 1616, 1640, 1599
1557, 1541, 1608, 1513
1461, 1501, 1526, 1504
1564, 1380, 1436, 1491
1447, 1445, 1370, 1426
1371, 1364, 1366, 1388
1347, 1358, 1302, 1340
1218, 1346, 1282, 1205
1240, 1246, 1185, 1318
1253, 1261, 1184, 1247
1266, 1224, 1258, 1190
1237, 1232, 1180, 1185
1144, 1117, 1225, 1129
1098, 1085, 1142, 1170
1122, 1061, 1084, 1053
1060, 1081, 1054, 1071
1033, 971, 1047, 1061
1052, 997, 1019, 1043
1054, 969, 994, 954
1019, 992, 998, 1011
1031, 942, 984, 959
1001, 955, 954, 888
978, 978, 1003, 916
903, 899, 927, 948
890, 882, 860, 913
917, 819, 917, 912
882, 839, 816, 875
856, 862, 845, 839
820, 842, 828, 807
772, 772, 802, 807
849, 782, 807, 812
774, 758, 766, 843
766, 817, 721, 725
757, 828, 769, 727
729, 745, 740, 714
743, 705, 663, 733
735, 685, 691, 665
702, 673, 651, 663
701, 723, 634, 677
650, 649, 665, 693
626, 637, 692, 664
661, 635, 681, 602
634, 642, 629, 653
613, 588, 599, 613
605, 603, 614, 583
553, 603, 568, 619
576, 562, 583, 566
568, 571, 614, 553
590, 557, 580, 555
526, 519, 550, 536
520, 567, 537, 544
537, 519, 527, 518
524, 535, 538, 548
549, 508, 533, 486
501, 530, 517, 509
472, 494, 502, 475
448, 476, 499, 471
502, 495, 438, 492
453, 431, 477, 450
440, 431, 492, 480
474, 415, 444, 412
426, 436, 433, 465
427, 469, 484, 454
471, 534, 532, 423
440, 420, 391, 411
445, 364, 406, 378
413, 411, 437, 423
396, 421, 419, 390
396, 402, 378, 371
384, 348, 371, 388
365, 395, 388, 366
410, 362, 357, 383
334, 349, 364, 379
374, 342, 358, 380
368, 389, 377, 358
365, 360, 356, 362
372, 330, 357, 375
334, 332, 319, 337
329, 315, 325, 308
339, 331, 336, 323
302, 321, 354, 316
329, 336, 311, 322
316, 323, 338, 305
294, 308, 286, 327
298, 297, 332, 289
303, 289, 287, 299
331, 314, 300, 303
287, 277, 291, 304
398, 403, 307, 314
262, 264, 304, 273
288, 268, 291, 295
277, 299, 300, 267
260, 261, 286, 261
252, 284, 267, 271
257, 257, 269, 300
273, 253, 282, 258
244, 245, 276, 255
244, 237, 240, 253
286, 259, 266, 258
291, 306, 288, 294
298, 303, 284, 274
268, 262, 279, 292
262, 267, 323, 321
402, 457, 545, 709
17217, 16782, 7927, 5352
552, 505, 436, 406
293, 306, 311, 324
268, 250, 272, 262
272, 244, 259, 245
246, 252, 271, 263
254, 232, 258, 232
221, 237, 220, 228
202, 230, 227, 232
213, 207, 201, 224
241, 241, 213, 232
219, 222, 232, 234
236, 242, 209, 233
219, 224, 211, 217
215, 223, 181, 214
206, 213, 232, 208
205, 206, 203, 196
212, 189, 202, 218
186, 176, 193, 189
214, 202, 168, 168
205, 195, 203, 221
213, 202, 187, 203
209, 180, 198, 177
196, 171, 209, 180
181, 202, 207, 163
209, 181, 180, 192
206, 194, 184, 171
194, 203, 196, 192
179, 161, 175, 196
162, 164, 173, 178
161, 189, 175, 180
166, 170, 191, 143
163, 174, 188, 156
183, 161, 152, 200
187, 167, 151, 175
177, 171, 183, 172
155, 168, 164, 171
172, 168, 170, 174
180, 178, 154, 165
166, 165, 170, 142
158, 190, 161, 166
178, 146, 162, 164
217, 212, 265, 382
582, 715, 651, 398
152, 160, 162, 181
149, 154, 168, 168
155, 147, 129, 144
154, 169, 184, 161
194, 166, 170, 168
141, 156, 180, 170
156, 166, 161, 155
157, 162, 144, 147
159, 155, 168, 164
155, 161, 141, 153
176, 163, 162, 134
158, 157, 144, 166
143, 148, 123, 147
158, 151, 148, 143
160, 142, 144, 145
164, 147, 156, 139
152, 164, 117, 158
147, 130, 155, 146
132, 147, 155, 128
134, 137, 155, 135
160, 135, 161, 152
150, 151, 130, 146
141, 143, 145, 141
149, 145, 131, 161
150, 141, 147, 138
149, 147, 134, 155
142, 165, 149, 146
144, 152, 164, 125
137, 169, 128, 155
155, 137, 147, 159
142, 137, 145, 172
144, 149, 154, 181
163, 154, 126, 135
172, 151, 141, 176
153, 171, 137, 139
143, 155, 138, 150
166, 155, 157, 158
132, 137, 151, 172
155, 158, 149, 161
171, 162, 151, 151
150, 142, 141, 150
139, 134, 145, 149
146, 172, 168, 179
238, 179, 161, 166
148, 134, 178, 164
154, 159, 152
*END

*EOF